 RMODE NFREQ    PERIOD(S) FREQUENCY(Hz)  C(KM/S)      U(KM/S)      ENERGY       GAMMA(1/KM)  ELLIPTICITY
    0     1    10.000      0.10000       3.2193       3.1824      0.11452E-02   0.0000      0.68383    
    0     2    11.000      0.90909E-01   3.2239       3.1643      0.10621E-02   0.0000      0.68293    
    0     3    12.000      0.83333E-01   3.2304       3.1415      0.99662E-03   0.0000      0.68170    
    0     4    13.000      0.76923E-01   3.2392       3.1146      0.94413E-03   0.0000      0.68014    
    0     5    14.000      0.71429E-01   3.2504       3.0839      0.90124E-03   0.0000      0.67825    
    0     6    15.000      0.66667E-01   3.2643       3.0504      0.86541E-03   0.0000      0.67608    
    0     7    16.000      0.62500E-01   3.2810       3.0147      0.83469E-03   0.0000      0.67367    
    0     8    17.000      0.58824E-01   3.3006       2.9780      0.80751E-03   0.0000      0.67107    
    0     9    18.000      0.55556E-01   3.3231       2.9414      0.78256E-03   0.0000      0.66837    
    0    10    19.000      0.52632E-01   3.3485       2.9063      0.75875E-03   0.0000      0.66565    
    0    11    20.000      0.50000E-01   3.3767       2.8740      0.73512E-03   0.0000      0.66303    
    0    12    21.000      0.47619E-01   3.4075       2.8460      0.71085E-03   0.0000      0.66062    
    0    13    22.000      0.45455E-01   3.4406       2.8238      0.68527E-03   0.0000      0.65857    
    0    14    23.000      0.43478E-01   3.4756       2.8089      0.65791E-03   0.0000      0.65700    
    0    15    24.000      0.41667E-01   3.5121       2.8025      0.62851E-03   0.0000      0.65606    
    0    16    25.000      0.40000E-01   3.5495       2.8054      0.59707E-03   0.0000      0.65587    
    0    17    26.000      0.38462E-01   3.5872       2.8183      0.56389E-03   0.0000      0.65656    
    0    18    27.000      0.37037E-01   3.6246       2.8408      0.52946E-03   0.0000      0.65819    
    0    19    28.000      0.35714E-01   3.6612       2.8725      0.49449E-03   0.0000      0.66081    
    0    20    29.000      0.34483E-01   3.6963       2.9120      0.45974E-03   0.0000      0.66439    
    0    21    30.000      0.33333E-01   3.7297       2.9581      0.42591E-03   0.0000      0.66891    
    0    22    31.000      0.32258E-01   3.7611       3.0089      0.39363E-03   0.0000      0.67428    
    0    23    32.000      0.31250E-01   3.7903       3.0629      0.36334E-03   0.0000      0.68038    
    0    24    33.000      0.30303E-01   3.8174       3.1183      0.33530E-03   0.0000      0.68710    
    0    25    34.000      0.29412E-01   3.8422       3.1740      0.30964E-03   0.0000      0.69432    
    0    26    35.000      0.28571E-01   3.8650       3.2288      0.28634E-03   0.0000      0.70190    
    0    27    36.000      0.27778E-01   3.8858       3.2819      0.26532E-03   0.0000      0.70974    
    0    28    37.000      0.27027E-01   3.9047       3.3328      0.24642E-03   0.0000      0.71773    
    0    29    38.000      0.26316E-01   3.9220       3.3810      0.22947E-03   0.0000      0.72578    
    0    30    39.000      0.25641E-01   3.9378       3.4264      0.21428E-03   0.0000      0.73382    
    0    31    40.000      0.25000E-01   3.9522       3.4690      0.20067E-03   0.0000      0.74178    
    0    32    41.000      0.24390E-01   3.9654       3.5087      0.18845E-03   0.0000      0.74961    
    0    33    42.000      0.23810E-01   3.9774       3.5456      0.17748E-03   0.0000      0.75727    
    0    34    43.000      0.23256E-01   3.9885       3.5798      0.16760E-03   0.0000      0.76472    
    0    35    44.000      0.22727E-01   3.9987       3.6116      0.15868E-03   0.0000      0.77195    
    0    36    45.000      0.22222E-01   4.0080       3.6410      0.15061E-03   0.0000      0.77894    
    0    37    46.000      0.21739E-01   4.0166       3.6682      0.14329E-03   0.0000      0.78566    
    0    38    47.000      0.21277E-01   4.0246       3.6934      0.13664E-03   0.0000      0.79213    
    0    39    48.000      0.20833E-01   4.0320       3.7167      0.13056E-03   0.0000      0.79832    
    0    40    49.000      0.20408E-01   4.0389       3.7383      0.12501E-03   0.0000      0.80424    
    0    41    50.000      0.20000E-01   4.0453       3.7584      0.11991E-03   0.0000      0.80989    
    0    42    51.000      0.19608E-01   4.0513       3.7770      0.11523E-03   0.0000      0.81528    
    0    43    52.000      0.19231E-01   4.0568       3.7942      0.11091E-03   0.0000      0.82040    
    0    44    53.000      0.18868E-01   4.0621       3.8103      0.10692E-03   0.0000      0.82527    
    0    45    54.000      0.18519E-01   4.0670       3.8253      0.10323E-03   0.0000      0.82989    
    0    46    55.000      0.18182E-01   4.0716       3.8392      0.99792E-04   0.0000      0.83427    
    0    47    56.000      0.17857E-01   4.0759       3.8522      0.96596E-04   0.0000      0.83841    
    0    48    57.000      0.17544E-01   4.0801       3.8643      0.93615E-04   0.0000      0.84233    
    0    49    58.000      0.17241E-01   4.0839       3.8757      0.90828E-04   0.0000      0.84603    
    0    50    59.000      0.16949E-01   4.0876       3.8863      0.88218E-04   0.0000      0.84952    
    0    51    60.000      0.16667E-01   4.0911       3.8963      0.85769E-04   0.0000      0.85282    
    0    52    61.000      0.16393E-01   4.0945       3.9056      0.83466E-04   0.0000      0.85591    
    0    53    62.000      0.16129E-01   4.0976       3.9144      0.81297E-04   0.0000      0.85883    
    0    54    63.000      0.15873E-01   4.1006       3.9227      0.79250E-04   0.0000      0.86156    
    0    55    64.000      0.15625E-01   4.1035       3.9304      0.77316E-04   0.0000      0.86413    
    0    56    65.000      0.15385E-01   4.1063       3.9378      0.75485E-04   0.0000      0.86654    
    0    57    66.000      0.15152E-01   4.1089       3.9447      0.73750E-04   0.0000      0.86879    
    0    58    67.000      0.14925E-01   4.1115       3.9513      0.72102E-04   0.0000      0.87090    
    0    59    68.000      0.14706E-01   4.1139       3.9575      0.70536E-04   0.0000      0.87286    
    0    60    69.000      0.14493E-01   4.1163       3.9633      0.69044E-04   0.0000      0.87469    
    0    61    70.000      0.14286E-01   4.1185       3.9689      0.67623E-04   0.0000      0.87640    
    0    62    71.000      0.14085E-01   4.1207       3.9742      0.66267E-04   0.0000      0.87798    
    0    63    72.000      0.13889E-01   4.1228       3.9792      0.64970E-04   0.0000      0.87945    
    0    64    73.000      0.13699E-01   4.1248       3.9840      0.63731E-04   0.0000      0.88081    
    0    65    74.000      0.13514E-01   4.1268       3.9886      0.62543E-04   0.0000      0.88206    
    0    66    75.000      0.13333E-01   4.1287       3.9929      0.61405E-04   0.0000      0.88321    
    0    67    76.000      0.13158E-01   4.1305       3.9971      0.60313E-04   0.0000      0.88427    
    0    68    77.000      0.12987E-01   4.1323       4.0011      0.59264E-04   0.0000      0.88524    
    0    69    78.000      0.12821E-01   4.1341       4.0049      0.58256E-04   0.0000      0.88612    
    0    70    79.000      0.12658E-01   4.1358       4.0085      0.57286E-04   0.0000      0.88693    
    0    71    80.000      0.12500E-01   4.1374       4.0120      0.56351E-04   0.0000      0.88765    
    0    72    81.000      0.12346E-01   4.1390       4.0154      0.55451E-04   0.0000      0.88830    
    0    73    82.000      0.12195E-01   4.1405       4.0186      0.54582E-04   0.0000      0.88888    
    0    74    83.000      0.12048E-01   4.1421       4.0217      0.53743E-04   0.0000      0.88940    
    0    75    84.000      0.11905E-01   4.1435       4.0247      0.52933E-04   0.0000      0.88985    
    0    76    85.000      0.11765E-01   4.1450       4.0275      0.52149E-04   0.0000      0.89024    
    0    77    86.000      0.11628E-01   4.1464       4.0303      0.51392E-04   0.0000      0.89058    
    0    78    87.000      0.11494E-01   4.1477       4.0330      0.50658E-04   0.0000      0.89086    
    0    79    88.000      0.11364E-01   4.1491       4.0355      0.49947E-04   0.0000      0.89109    
    0    80    89.000      0.11236E-01   4.1504       4.0380      0.49258E-04   0.0000      0.89127    
    0    81    90.000      0.11111E-01   4.1517       4.0404      0.48590E-04   0.0000      0.89140    
    0    82    91.000      0.10989E-01   4.1529       4.0428      0.47942E-04   0.0000      0.89149    
    0    83    92.000      0.10870E-01   4.1542       4.0450      0.47313E-04   0.0000      0.89154    
    0    84    93.000      0.10753E-01   4.1554       4.0472      0.46701E-04   0.0000      0.89155    
    0    85    94.000      0.10638E-01   4.1566       4.0494      0.46107E-04   0.0000      0.89152    
    0    86    95.000      0.10526E-01   4.1577       4.0514      0.45529E-04   0.0000      0.89146    
    0    87    96.000      0.10417E-01   4.1589       4.0535      0.44967E-04   0.0000      0.89136    
    0    88    97.000      0.10309E-01   4.1600       4.0554      0.44420E-04   0.0000      0.89123    
    0    89    98.000      0.10204E-01   4.1611       4.0573      0.43887E-04   0.0000      0.89107    
    0    90    99.000      0.10101E-01   4.1621       4.0592      0.43368E-04   0.0000      0.89089    
    0    91    100.00      0.10000E-01   4.1632       4.0610      0.42862E-04   0.0000      0.89067    
    0    92    101.00      0.99010E-02   4.1642       4.0627      0.42369E-04   0.0000      0.89043    
    0    93    102.00      0.98039E-02   4.1653       4.0645      0.41888E-04   0.0000      0.89017    
    0    94    103.00      0.97087E-02   4.1663       4.0661      0.41418E-04   0.0000      0.88988    
    0    95    104.00      0.96154E-02   4.1673       4.0678      0.40960E-04   0.0000      0.88957    
    0    96    105.00      0.95238E-02   4.1682       4.0694      0.40513E-04   0.0000      0.88924    
    0    97    106.00      0.94340E-02   4.1692       4.0710      0.40076E-04   0.0000      0.88889    
    0    98    107.00      0.93458E-02   4.1701       4.0725      0.39649E-04   0.0000      0.88852    
    0    99    108.00      0.92593E-02   4.1710       4.0740      0.39231E-04   0.0000      0.88813    
    0   100    109.00      0.91743E-02   4.1720       4.0755      0.38823E-04   0.0000      0.88773    
    0   101    110.00      0.90909E-02   4.1729       4.0769      0.38424E-04   0.0000      0.88731    
    0   102    111.00      0.90090E-02   4.1737       4.0783      0.38033E-04   0.0000      0.88688    
    0   103    112.00      0.89286E-02   4.1746       4.0797      0.37651E-04   0.0000      0.88643    
    0   104    113.00      0.88496E-02   4.1755       4.0811      0.37277E-04   0.0000      0.88597    
    0   105    114.00      0.87719E-02   4.1763       4.0824      0.36911E-04   0.0000      0.88550    
    0   106    115.00      0.86957E-02   4.1772       4.0837      0.36552E-04   0.0000      0.88502    
    0   107    116.00      0.86207E-02   4.1780       4.0850      0.36200E-04   0.0000      0.88452    
    0   108    117.00      0.85470E-02   4.1788       4.0863      0.35856E-04   0.0000      0.88402    
    0   109    118.00      0.84746E-02   4.1796       4.0875      0.35518E-04   0.0000      0.88351    
    0   110    119.00      0.84034E-02   4.1804       4.0888      0.35187E-04   0.0000      0.88299    
    0   111    120.00      0.83333E-02   4.1812       4.0900      0.34863E-04   0.0000      0.88245    
